Data: mercoledì 10 giugno 2020	Ora: 14:05
Analizzatore  1: TOF TOF LR	Analizzatore  2: R66 ROUTE66_HR_EELS	
pass energy/rall 1: 0.00	pass energy/rall 2: 10.00	
******************************************************
Scansione:    energia analizzata
Min (eV): 40.00	Max (eV): 94.50	Step (eV): 0.10	
kinetic energy 1 (eV): 0.00	kinetic energy 2 (eV): 94.55
polar angle (deg): 255.00	X axis (mm): 580.00
*******************  R66 parameters ********************
Step in ch_x_eV: 80	Ch x eV @ Ep=1eV: 5236
binned channels: 53	same region acquisitions: 6
******************************************************
Acq. time (s):  0.50	Number of scans:  10	Total acq. time (s):  5.00
******************************************************
39.667685	0.841509
39.768908	1.192453
39.870130	1.462264
39.971352	1.702516
40.072574	1.708805
40.173797	1.702830
40.275019	1.770755
40.376241	1.760755
40.477464	1.843019
40.578686	1.857358
40.679908	1.820629
40.781131	1.788679
40.882353	1.790189
40.983575	1.835346
41.084798	1.760755
41.186020	1.780126
41.287242	1.830943
41.388464	1.775849
41.489687	1.772830
41.590909	1.806289
41.692131	1.754717
41.793354	1.753333
41.894576	1.775346
41.995798	1.722264
42.097021	1.726918
42.198243	1.720126
42.299465	1.763019
42.400688	1.853208
42.501910	1.744277
42.603132	1.704906
42.704354	1.785535
42.805577	1.677862
42.906799	1.764528
43.008021	1.766667
43.109244	1.703774
43.210466	1.687547
43.311688	1.786918
43.412911	1.716352
43.514133	1.640000
43.615355	1.739874
43.716578	1.649811
43.817800	1.760000
43.919022	1.657987
44.020244	1.663270
44.121467	1.698868
44.222689	1.705283
44.323911	1.598113
44.425134	1.670189
44.526356	1.655975
44.627578	1.567799
44.728801	1.643774
44.830023	1.649937
44.931245	1.619497
45.032468	1.619623
45.133690	1.626667
45.234912	1.648931
45.336134	1.640755
45.437357	1.668931
45.538579	1.672075
45.639801	1.706415
45.741024	1.688302
45.842246	1.632453
45.943468	1.540377
46.044691	1.608931
46.145913	1.682264
46.247135	1.675472
46.348358	1.707799
46.449580	1.668553
46.550802	1.633208
46.652024	1.703396
46.753247	1.712075
46.854469	1.619623
46.955691	1.632704
47.056914	1.658491
47.158136	1.673962
47.259358	1.668302
47.360581	1.647044
47.461803	1.641509
47.563025	1.651447
47.664248	1.609057
47.765470	1.578239
47.866692	1.644025
47.967914	1.575094
48.069137	1.645535
48.170359	1.567044
48.271581	1.578868
48.372804	1.577233
48.474026	1.532956
48.575248	1.510189
48.676471	1.585912
48.777693	1.634088
48.878915	1.572075
48.980138	1.605409
49.081360	1.522893
49.182582	1.548679
49.283804	1.547799
49.385027	1.635723
49.486249	1.538113
49.587471	1.606038
49.688694	1.634843
49.789916	1.632453
49.891138	1.628805
49.992361	1.557358
50.093583	1.655094
50.194805	1.650943
50.296028	1.532201
50.397250	1.623396
50.498472	1.613333
50.599694	1.604780
50.700917	1.617358
50.802139	1.603145
50.903361	1.606918
51.004584	1.649811
51.105806	1.646164
51.207028	1.572956
51.308251	1.625660
51.409473	1.633082
51.510695	1.620000
51.611917	1.662642
51.713140	1.585912
51.814362	1.572201
51.915584	1.627925
52.016807	1.635723
52.118029	1.561509
52.219251	1.585660
52.320474	1.575723
52.421696	1.585912
52.522918	1.544906
52.624141	1.639245
52.725363	1.621132
52.826585	1.623396
52.927807	1.629686
53.029030	1.620629
53.130252	1.640755
53.231474	1.635094
53.332697	1.660252
53.433919	1.618868
53.535141	1.686792
53.636364	1.583019
53.737586	1.650566
53.838808	1.640503
53.940031	1.623396
54.041253	1.661132
54.142475	1.650063
54.243697	1.602893
54.344920	1.646792
54.446142	1.636981
54.547364	1.651195
54.648587	1.634717
54.749809	1.638365
54.851031	1.594465
54.952254	1.687547
55.053476	1.716101
55.154698	1.687925
55.255921	1.561509
55.357143	1.689434
55.458365	1.711698
55.559587	1.636226
55.660810	1.735723
55.762032	1.703396
55.863254	1.624151
55.964477	1.671824
56.065699	1.569057
56.166921	1.711572
56.268144	1.691195
56.369366	1.633962
56.470588	1.713711
56.571811	1.730063
56.673033	1.671698
56.774255	1.716101
56.875477	1.664906
56.976700	1.657358
57.077922	1.700126
57.179144	1.656352
57.280367	1.726038
57.381589	1.761384
57.482811	1.700377
57.584034	1.705660
57.685256	1.722390
57.786478	1.702390
57.887701	1.683774
57.988923	1.713836
58.090145	1.670818
58.191367	1.687547
58.292590	1.692956
58.393812	1.638113
58.495034	1.729811
58.596257	1.707547
58.697479	1.675094
58.798701	1.635472
58.899924	1.727925
59.001146	1.620629
59.102368	1.714717
59.203591	1.760126
59.304813	1.774340
59.406035	1.760000
59.507257	1.665786
59.608480	1.695220
59.709702	1.661887
59.810924	1.736352
59.912147	1.678491
60.013369	1.707170
60.114591	1.747044
60.215814	1.631321
60.317036	1.695849
60.418258	1.670692
60.519481	1.686038
60.620703	1.720755
60.721925	1.671824
60.823147	1.705409
60.924370	1.689057
61.025592	1.733333
61.126814	1.691447
61.228037	1.741887
61.329259	1.703396
61.430481	1.661635
61.531704	1.679245
61.632926	1.663899
61.734148	1.732830
61.835371	1.731321
61.936593	1.667673
62.037815	1.645409
62.139037	1.699623
62.240260	1.725283
62.341482	1.717107
62.442704	1.697358
62.543927	1.702767
62.645149	1.710314
62.746371	1.734340
62.847594	1.705157
62.948816	1.692956
63.050038	1.751698
63.151261	1.702013
63.252483	1.776855
63.353705	1.704151
63.454927	1.758239
63.556150	1.701887
63.657372	1.717736
63.758594	1.704528
63.859817	1.698868
63.961039	1.752956
64.062261	1.739245
64.163484	1.741887
64.264706	1.724906
64.365928	1.789057
64.467150	1.723019
64.568373	1.654843
64.669595	1.666038
64.770817	1.680000
64.872040	1.716730
64.973262	1.727547
65.074484	1.704906
65.175707	1.685660
65.276929	1.755849
65.378151	1.690566
65.479374	1.750943
65.580596	1.627799
65.681818	1.623396
65.783040	1.668805
65.884263	1.610063
65.985485	1.635472
66.086707	1.670314
66.187930	1.595472
66.289152	1.640755
66.390374	1.659245
66.491597	1.658616
66.592819	1.754717
66.694041	1.695472
66.795264	1.653585
66.896486	1.721509
66.997708	1.703019
67.098930	1.566289
67.200153	1.671698
67.301375	1.611698
67.402597	1.678239
67.503820	1.636226
67.605042	1.669811
67.706264	1.629434
67.807487	1.625660
67.908709	1.691950
68.009931	1.642516
68.111154	1.603774
68.212376	1.602642
68.313598	1.624277
68.414820	1.561509
68.516043	1.645912
68.617265	1.563145
68.718487	1.571321
68.819710	1.625660
68.920932	1.566289
69.022154	1.608302
69.123377	1.585409
69.224599	1.552201
69.325821	1.567547
69.427044	1.569937
69.528266	1.557358
69.629488	1.557736
69.730710	1.518113
69.831933	1.529182
69.933155	1.515472
70.034377	1.544528
70.135600	1.520629
70.236822	1.443019
70.338044	1.537107
70.439267	1.503396
70.540489	1.522264
70.641711	1.537736
70.742934	1.502767
70.844156	1.496604
70.945378	1.502138
71.046600	1.523774
71.147823	1.459623
71.249045	1.509057
71.350267	1.483899
71.451490	1.480755
71.552712	1.460377
71.653934	1.537107
71.755157	1.459623
71.856379	1.462264
71.957601	1.418113
72.058824	1.456981
72.160046	1.393082
72.261268	1.404528
72.362490	1.399371
72.463713	1.432704
72.564935	1.363774
72.666157	1.418616
72.767380	1.440126
72.868602	1.392453
72.969824	1.435094
73.071047	1.428679
73.172269	1.415849
73.273491	1.394591
73.374714	1.389686
73.475936	1.370566
73.577158	1.382642
73.678380	1.364025
73.779603	1.365283
73.880825	1.405283
73.982047	1.285031
74.083270	1.356226
74.184492	1.284906
74.285714	1.319623
74.386937	1.349434
74.488159	1.345786
74.589381	1.350063
74.690604	1.356226
74.791826	1.356981
74.893048	1.287547
74.994270	1.313208
75.095493	1.318365
75.196715	1.284025
75.297937	1.285283
75.399160	1.232830
75.500382	1.294214
75.601604	1.264151
75.702827	1.332579
75.804049	1.238616
75.905271	1.264151
76.006494	1.266038
76.107716	1.238239
76.208938	1.260377
76.310160	1.263522
76.411383	1.209308
76.512605	1.264151
76.613827	1.217484
76.715050	1.237107
76.816272	1.225660
76.917494	1.181258
77.018717	1.190440
77.119939	1.207547
77.221161	1.186164
77.322383	1.193836
77.423606	1.190189
77.524828	1.216226
77.626050	1.124654
77.727273	1.160000
77.828495	1.158742
77.929717	1.114717
78.030940	1.126038
78.132162	1.190818
78.233384	1.130943
78.334607	1.190189
78.435829	1.084906
78.537051	1.061887
78.638273	1.123774
78.739496	1.076981
78.840718	1.118491
78.941940	1.037736
79.043163	1.167170
79.144385	1.109057
79.245607	1.092830
79.346830	1.117484
79.448052	1.110943
79.549274	1.129811
79.650497	1.083774
79.751719	1.069560
79.852941	1.096604
79.954163	1.036730
80.055386	1.024151
80.156608	1.067421
80.257830	1.049308
80.359053	1.009057
80.460275	0.989434
80.561497	0.996730
80.662720	0.981132
80.763942	1.008428
80.865164	1.051069
80.966387	0.947925
81.067609	0.938742
81.168831	1.005283
81.270053	0.978868
81.371276	0.957610
81.472498	0.959245
81.573720	0.942642
81.674943	0.929434
81.776165	0.992830
81.877387	0.904151
81.978610	0.940377
82.079832	0.926164
82.181054	0.902642
82.282277	0.877610
82.383499	0.913459
82.484721	0.942642
82.585943	0.931572
82.687166	0.914843
82.788388	0.920755
82.889610	0.908428
82.990833	0.950943
83.092055	0.949434
83.193277	0.871447
83.294500	0.888050
83.395722	0.930566
83.496944	0.939874
83.598167	0.923774
83.699389	0.944151
83.800611	0.943522
83.901833	0.938994
84.003056	0.988679
84.104278	0.940629
84.205500	0.898994
84.306723	0.996981
84.407945	1.019245
84.509167	1.010063
84.610390	0.988679
84.711612	1.069811
84.812834	1.033082
84.914057	1.092830
85.015279	1.099874
85.116501	1.167673
85.217723	1.207547
85.318946	1.185535
85.420168	1.214465
85.521390	1.302642
85.622613	1.253962
85.723835	1.326918
85.825057	1.341887
85.926280	1.375094
86.027502	1.390189
86.128724	1.348679
86.229947	1.357484
86.331169	1.389182
86.432391	1.469434
86.533613	1.398113
86.634836	1.377358
86.736058	1.406792
86.837280	1.347421
86.938503	1.337358
87.039725	1.408302
87.140947	1.287925
87.242170	1.311572
87.343392	1.284528
87.444614	1.244780
87.545837	1.247799
87.647059	1.199245
87.748281	1.129182
87.849503	1.110189
87.950726	1.099623
88.051948	1.056101
88.153170	1.042264
88.254393	1.055472
88.355615	1.025283
88.456837	0.981887
88.558060	0.958239
88.659282	0.943648
88.760504	0.984906
88.861727	0.938616
88.962949	0.963522
89.064171	0.976604
89.165393	0.973962
89.266616	0.988050
89.367838	0.994717
89.469060	0.999874
89.570283	1.048176
89.671505	1.017358
89.772727	1.097233
89.873950	1.060252
89.975172	1.088302
90.076394	1.103270
90.177617	1.086667
90.278839	1.140377
90.380061	1.165912
90.481283	1.267547
90.582506	1.251321
90.683728	1.344906
90.784950	1.390566
90.886173	1.405283
90.987395	1.411698
91.088617	1.470943
91.189840	1.584151
91.291062	1.687421
91.392284	1.799623
91.493506	1.912453
91.594729	2.069937
91.695951	2.257987
91.797173	2.433962
91.898396	2.837987
91.999618	3.013711
92.100840	3.554717
92.202063	4.087170
92.303285	4.759874
92.404507	5.811321
92.505730	7.448931
92.606952	9.152453
92.708174	12.447547
92.809396	18.887421
92.910619	32.776478
93.011841	73.520000
93.113063	80.464025
93.214286	11.367296
93.315508	3.319245
93.416730	1.915723
93.517953	1.184277
93.619175	0.662642
93.720397	0.343396
93.821620	0.224654
93.922842	0.095849
94.024064	0.065786
94.125286	0.056478
94.226509	0.043774
94.327731	0.040377
94.428953	0.050629
94.530176	0.051572
94.631398	0.055975
94.732620	0.047170
94.833843	0.098113
