Data: giovedì 7 maggio 2020	Ora: 11:37
Analizzatore  1: TOF TOF LR	Analizzatore  2: R66 ROUTE66_HR_XPS	
pass energy/rall 1: 0.00	pass energy/rall 2: 40.00	
******************************************************
Scansione:    energia analizzata
Min (eV): 1188.00	Max (eV): 1205.00	Step (eV): 0.05	
kinetic energy 1 (eV): 0.00	kinetic energy 2 (eV): 1205.04
polar angle (deg): 270.00	X axis (mm): 580.50
*******************  R66 parameters ********************
Step in ch_x_eV: 10	Ch x eV @ Ep=1eV: 5236
binned channels: 7	same region acquisitions: 41
******************************************************
Acq. time (s):  0.50	Number of scans:  5	Total acq. time (s):  2.50
******************************************************
1186.495034	0.285714
1186.548510	0.171429
1186.601986	0.219048
1186.655462	0.190476
1186.708938	0.204762
1186.762414	0.271429
1186.815890	0.240000
1186.869366	0.194286
1186.922842	0.221769
1186.976318	0.171429
1187.029794	0.207143
1187.083270	0.207937
1187.136746	0.200635
1187.190222	0.205714
1187.243697	0.187013
1187.297173	0.201299
1187.350649	0.185714
1187.404125	0.234799
1187.457601	0.264992
1187.511077	0.281633
1187.564553	0.243810
1187.618029	0.238095
1187.671505	0.300630
1187.724981	0.198319
1187.778457	0.184687
1187.831933	0.283542
1187.885409	0.243609
1187.938885	0.241805
1187.992361	0.240408
1188.045837	0.272109
1188.099312	0.259740
1188.152788	0.204291
1188.206264	0.296687
1188.259740	0.254762
1188.313216	0.286476
1188.366692	0.210110
1188.420168	0.296703
1188.473644	0.251282
1188.527120	0.252079
1188.580596	0.248980
1188.634072	0.256158
1188.687548	0.264893
1188.741024	0.280676
1188.794500	0.245161
1188.847976	0.207373
1188.901451	0.259848
1188.954927	0.280519
1189.008403	0.265241
1189.061879	0.260888
1189.115355	0.243265
1189.168831	0.258730
1189.222307	0.254483
1189.275783	0.240276
1189.329259	0.293233
1189.382735	0.264623
1189.436211	0.243919
1189.489687	0.265714
1189.543163	0.221916
1189.596639	0.259129
1189.650115	0.262857
1189.703591	0.251882
1189.757066	0.267770
1189.810542	0.252160
1189.864018	0.271429
1189.917494	0.271847
1189.970970	0.264564
1190.024446	0.304286
1190.077922	0.263066
1190.131398	0.290070
1190.184874	0.280000
1190.238350	0.266237
1190.291826	0.253380
1190.345302	0.261986
1190.398778	0.291429
1190.452254	0.288990
1190.505730	0.281707
1190.559206	0.314286
1190.612681	0.302822
1190.666157	0.328711
1190.719633	0.301429
1190.773109	0.313171
1190.826585	0.320418
1190.880061	0.326202
1190.933537	0.350000
1190.987013	0.341777
1191.040489	0.310418
1191.093965	0.337143
1191.147441	0.307596
1191.200917	0.352892
1191.254393	0.352857
1191.307869	0.341707
1191.361345	0.384321
1191.414820	0.332962
1191.468296	0.322857
1191.521772	0.361533
1191.575248	0.350105
1191.628724	0.355714
1191.682200	0.387491
1191.735676	0.368641
1191.789152	0.395714
1191.842628	0.354460
1191.896104	0.387143
1191.949580	0.362857
1192.003056	0.394286
1192.056532	0.418537
1192.110008	0.378397
1192.163484	0.388571
1192.216960	0.384669
1192.270435	0.370209
1192.323911	0.374286
1192.377387	0.396516
1192.430863	0.417491
1192.484339	0.361498
1192.537815	0.368571
1192.591291	0.420070
1192.644767	0.407143
1192.698243	0.387143
1192.751719	0.368711
1192.805195	0.372857
1192.858671	0.420000
1192.912147	0.371568
1192.965623	0.397631
1193.019099	0.382892
1193.072574	0.378571
1193.126050	0.367247
1193.179526	0.361672
1193.233002	0.408571
1193.286478	0.387143
1193.339954	0.375854
1193.393430	0.364286
1193.446906	0.361603
1193.500382	0.358537
1193.553858	0.375889
1193.607334	0.370000
1193.660810	0.356620
1193.714286	0.364495
1193.767762	0.355714
1193.821238	0.372927
1193.874714	0.406760
1193.928189	0.328571
1193.981665	0.381638
1194.035141	0.371254
1194.088617	0.370070
1194.142093	0.341429
1194.195569	0.340314
1194.249045	0.358606
1194.302521	0.375714
1194.355997	0.372857
1194.409473	0.377143
1194.462949	0.357143
1194.516425	0.381254
1194.569901	0.403066
1194.623377	0.378711
1194.676853	0.392857
1194.730328	0.346028
1194.783804	0.404390
1194.837280	0.347143
1194.890756	0.401568
1194.944232	0.371882
1194.997708	0.397143
1195.051184	0.392962
1195.104660	0.443763
1195.158136	0.441394
1195.211612	0.370000
1195.265088	0.436969
1195.318564	0.438606
1195.372040	0.425714
1195.425516	0.442648
1195.478992	0.436899
1195.532468	0.470000
1195.585943	0.464321
1195.639419	0.481324
1195.692895	0.489652
1195.746371	0.487143
1195.799847	0.505192
1195.853323	0.509791
1195.906799	0.481429
1195.960275	0.512334
1196.013751	0.512369
1196.067227	0.484286
1196.120703	0.539686
1196.174179	0.553449
1196.227655	0.554983
1196.281131	0.561429
1196.334607	0.606969
1196.388083	0.647944
1196.441558	0.545714
1196.495034	0.580976
1196.548510	0.616725
1196.601986	0.655714
1196.655462	0.673484
1196.708938	0.687561
1196.762414	0.723206
1196.815890	0.714286
1196.869366	0.716063
1196.922842	0.735575
1196.976318	0.727143
1197.029794	0.794146
1197.083270	0.813101
1197.136746	0.838571
1197.190222	0.834042
1197.243697	0.893066
1197.297173	0.875679
1197.350649	0.867143
1197.404125	0.992509
1197.457601	0.990732
1197.511077	1.084286
1197.564553	1.003833
1197.618029	1.121080
1197.671505	1.071429
1197.724981	1.188641
1197.778457	1.222927
1197.831933	1.404599
1197.885409	1.477143
1197.938885	1.507666
1197.992361	1.598815
1198.045837	1.777143
1198.099312	2.025610
1198.152788	2.050592
1198.206264	2.208571
1198.259740	2.483136
1198.313216	2.722474
1198.366692	2.889721
1198.420168	3.171429
1198.473644	3.531394
1198.527120	3.659164
1198.580596	4.017143
1198.634072	3.997561
1198.687548	3.899164
1198.741024	3.855714
1198.794500	3.610941
1198.847976	3.473554
1198.901451	2.837979
1198.954927	2.538571
1199.008403	1.953240
1199.061879	1.727805
1199.115355	1.435714
1199.168831	1.204878
1199.222307	1.076585
1199.275783	0.830000
1199.329259	0.825017
1199.382735	0.713066
1199.436211	0.637526
1199.489687	0.541429
1199.543163	0.502265
1199.596639	0.427038
1199.650115	0.397143
1199.703591	0.367108
1199.757066	0.303206
1199.810542	0.250000
1199.864018	0.296272
1199.917494	0.236341
1199.970970	0.227526
1200.024446	0.187143
1200.077922	0.187944
1200.131398	0.163833
1200.184874	0.174286
1200.238350	0.135226
1200.291826	0.125366
1200.345302	0.154286
1200.398778	0.126516
1200.452254	0.096725
1200.505730	0.105436
1200.559206	0.114286
1200.612681	0.056899
1200.666157	0.076899
1200.719633	0.078571
1200.773109	0.075366
1200.826585	0.068293
1200.880061	0.065714
1200.933537	0.056934
1200.987013	0.059791
1201.040489	0.051150
1201.093965	0.050000
1201.147441	0.062683
1201.200917	0.059791
1201.254393	0.052857
1201.307869	0.044146
1201.361345	0.038397
1201.414820	0.044286
1201.468296	0.038467
1201.521772	0.041394
1201.575248	0.034216
1201.628724	0.031429
1201.682200	0.026969
1201.735676	0.024251
1201.789152	0.028571
1201.842628	0.027038
1201.896104	0.029826
1201.949580	0.025714
1202.003056	0.024216
1202.056532	0.015610
1202.110008	0.022683
1202.163484	0.022857
1202.216960	0.027038
1202.270435	0.019930
1202.323911	0.017143
1202.377387	0.019965
1202.430863	0.024251
1202.484339	0.017143
1202.537815	0.017038
1202.591291	0.014251
1202.644767	0.017108
1202.698243	0.014286
1202.751719	0.028397
1202.805195	0.018502
1202.858671	0.017143
1202.912147	0.018502
1202.965623	0.018502
1203.019099	0.015714
1203.072574	0.015714
1203.126050	0.024146
1203.179526	0.012822
1203.233002	0.022857
1203.286478	0.021359
1203.339954	0.021394
1203.393430	0.012857
1203.446906	0.011429
1203.500382	0.022753
1203.553858	0.021429
1203.607334	0.023407
1203.660810	0.011760
1203.714286	0.025564
1203.767762	0.016988
1203.821238	0.017332
1203.874714	0.019093
1203.928189	0.019592
1203.981665	0.028283
1204.035141	0.013598
1204.088617	0.025974
1204.142093	0.019481
1204.195569	0.014401
1204.249045	0.012903
1204.302521	0.024762
1204.355997	0.013530
1204.409473	0.013793
1204.462949	0.018367
1204.516425	0.010506
1204.569901	0.023606
1204.623377	0.019780
1204.676853	0.013538
1204.730328	0.006952
1204.783804	0.019048
1204.837280	0.014907
1204.890756	0.012987
1204.944232	0.023500
1204.997708	0.032653
1205.051184	0.025034
1205.104660	0.014737
1205.158136	0.018045
1205.211612	0.012698
1205.265088	0.009897
1205.318564	0.016807
1205.372040	0.007143
1205.425516	0.022619
1205.478992	0.011701
1205.532468	0.028571
1205.585943	0.021350
1205.639419	0.008791
1205.692895	0.009524
1205.746371	0.020779
1205.799847	0.017143
1205.853323	0.017143
1205.906799	0.012698
1205.960275	0.014286
1206.013751	0.014286
1206.067227	0.016327
1206.120703	0.035374
1206.174179	0.000000
1206.227655	0.000000
1206.281131	0.000000
1206.334607	0.014286
1206.388083	0.019048
1206.441558	0.000000
1206.495034	0.028571
1206.544691	0.066667
