Data: venerdì 15 maggio 2020	Ora: 12:33
Analizzatore  1: TOF TOF LR	Analizzatore  2: R66 ROUTE66_HR_XPS	
pass energy/rall 1: 0.00	pass energy/rall 2: 40.00	
******************************************************
Scansione:    angolo polare
Min (eV): 250.00	Max (eV): 343.00	Step (eV): 0.25	
kinetic energy 1 (eV): 0.00	kinetic energy 2 (eV): 1198.70
polar angle (deg): 331.00	X axis (mm): 580.50
*******************  R66 parameters ********************
Step in ch_x_eV: 10	Ch x eV @ Ep=1eV: 5236
binned channels: 14	same region acquisitions: 41
******************************************************
Acq. time (s):  1.00	Number of scans:  1	Total acq. time (s):  1.00
******************************************************
250.000000	228.000000
250.250000	195.000000
250.500000	236.000000
250.750000	256.000000
251.000000	219.000000
251.250000	270.000000
251.500000	247.000000
251.750000	266.000000
252.000000	277.000000
252.250000	265.000000
252.500000	293.000000
252.750000	279.000000
253.000000	303.000000
253.250000	303.000000
253.500000	314.000000
253.750000	318.000000
254.000000	310.000000
254.250000	349.000000
254.500000	369.000000
254.750000	349.000000
255.000000	320.000000
255.250000	400.000000
255.500000	390.000000
255.750000	382.000000
256.000000	409.000000
256.250000	398.000000
256.500000	469.000000
256.750000	463.000000
257.000000	399.000000
257.250000	462.000000
257.500000	449.000000
257.750000	461.000000
258.000000	488.000000
258.250000	487.000000
258.500000	503.000000
258.750000	519.000000
259.000000	490.000000
259.250000	497.000000
259.500000	493.000000
259.750000	519.000000
260.000000	578.000000
260.250000	485.000000
260.500000	540.000000
260.750000	546.000000
261.000000	583.000000
261.250000	598.000000
261.500000	601.000000
261.750000	629.000000
262.000000	609.000000
262.250000	589.000000
262.500000	626.000000
262.750000	606.000000
263.000000	631.000000
263.250000	625.000000
263.500000	641.000000
263.750000	607.000000
264.000000	661.000000
264.250000	661.000000
264.500000	619.000000
264.750000	699.000000
265.000000	655.000000
265.250000	653.000000
265.500000	670.000000
265.750000	662.000000
266.000000	661.000000
266.250000	653.000000
266.500000	641.000000
266.750000	683.000000
267.000000	703.000000
267.250000	647.000000
267.500000	632.000000
267.750000	641.000000
268.000000	694.000000
268.250000	613.000000
268.500000	698.000000
268.750000	661.000000
269.000000	662.000000
269.250000	694.000000
269.500000	640.000000
269.750000	624.000000
270.000000	625.000000
270.250000	623.000000
270.500000	633.000000
270.750000	585.000000
271.000000	587.000000
271.250000	566.000000
271.500000	630.000000
271.750000	637.000000
272.000000	609.000000
272.250000	588.000000
272.500000	531.000000
272.750000	554.000000
273.000000	576.000000
273.250000	542.000000
273.500000	534.000000
273.750000	527.000000
274.000000	537.000000
274.250000	515.000000
274.500000	532.000000
274.750000	483.000000
275.000000	521.000000
275.250000	507.000000
275.500000	458.000000
275.750000	466.000000
276.000000	499.000000
276.250000	461.000000
276.500000	439.000000
276.750000	424.000000
277.000000	419.000000
277.250000	424.000000
277.500000	394.000000
277.750000	387.000000
278.000000	366.000000
278.250000	379.000000
278.500000	340.000000
278.750000	353.000000
279.000000	374.000000
279.250000	337.000000
279.500000	352.000000
279.750000	352.000000
280.000000	337.000000
280.250000	325.000000
280.500000	339.000000
280.750000	288.000000
281.000000	280.000000
281.250000	269.000000
281.500000	285.000000
281.750000	260.000000
282.000000	265.000000
282.250000	280.000000
282.500000	250.000000
282.750000	280.000000
283.000000	267.000000
283.250000	211.000000
283.500000	227.000000
283.750000	242.000000
284.000000	209.000000
284.250000	207.000000
284.500000	210.000000
284.750000	230.000000
285.000000	214.000000
285.250000	202.000000
285.500000	201.000000
285.750000	207.000000
286.000000	195.000000
286.250000	196.000000
286.500000	189.000000
286.750000	169.000000
287.000000	163.000000
287.250000	164.000000
287.500000	173.000000
287.750000	156.000000
288.000000	169.000000
288.250000	152.000000
288.500000	143.000000
288.750000	175.000000
289.000000	125.000000
289.250000	140.000000
289.500000	152.000000
289.750000	127.000000
290.000000	138.000000
290.250000	130.000000
290.500000	141.000000
290.750000	127.000000
291.000000	132.000000
291.250000	137.000000
291.500000	138.000000
291.750000	113.000000
292.000000	113.000000
292.250000	143.000000
292.500000	115.000000
292.750000	112.000000
293.000000	105.000000
293.250000	91.000000
293.500000	77.000000
293.750000	89.000000
294.000000	102.000000
294.250000	103.000000
294.500000	88.000000
294.750000	86.000000
295.000000	91.000000
295.250000	83.000000
295.500000	79.000000
295.750000	85.000000
296.000000	71.000000
296.250000	80.000000
296.500000	63.000000
296.750000	74.000000
297.000000	79.000000
297.250000	60.000000
297.500000	58.000000
297.750000	81.000000
298.000000	64.000000
298.250000	60.000000
298.500000	54.000000
298.750000	70.000000
299.000000	49.000000
299.250000	50.000000
299.500000	46.000000
299.750000	50.000000
300.000000	50.000000
300.250000	42.000000
300.500000	50.000000
300.750000	42.000000
301.000000	50.000000
301.250000	40.000000
301.500000	47.000000
301.750000	45.000000
302.000000	37.000000
302.250000	29.000000
302.500000	28.000000
302.750000	20.000000
303.000000	34.000000
303.250000	27.000000
303.500000	25.000000
303.750000	24.000000
304.000000	33.000000
304.250000	26.000000
304.500000	23.000000
304.750000	30.000000
305.000000	21.000000
305.250000	14.000000
305.500000	25.000000
305.750000	17.000000
306.000000	23.000000
306.250000	26.000000
306.500000	21.000000
306.750000	21.000000
307.000000	17.000000
307.250000	15.000000
307.500000	22.000000
307.750000	16.000000
308.000000	14.000000
308.250000	11.000000
308.500000	16.000000
308.750000	11.000000
309.000000	14.000000
309.250000	16.000000
309.500000	19.000000
309.750000	15.000000
310.000000	15.000000
310.250000	12.000000
310.500000	17.000000
310.750000	13.000000
311.000000	15.000000
311.250000	16.000000
311.500000	9.000000
311.750000	12.000000
312.000000	9.000000
312.250000	15.000000
312.500000	9.000000
312.750000	5.000000
313.000000	15.000000
313.250000	8.000000
313.500000	9.000000
313.750000	13.000000
314.000000	9.000000
314.250000	9.000000
314.500000	5.000000
314.750000	7.000000
315.000000	8.000000
315.250000	6.000000
315.500000	7.000000
315.750000	8.000000
316.000000	2.000000
316.250000	11.000000
316.500000	5.000000
316.750000	7.000000
317.000000	8.000000
317.250000	8.000000
317.500000	1.000000
317.750000	8.000000
318.000000	9.000000
318.250000	9.000000
318.500000	3.000000
318.750000	6.000000
319.000000	5.000000
319.250000	13.000000
319.500000	5.000000
319.750000	6.000000
320.000000	4.000000
320.250000	5.000000
320.500000	7.000000
320.750000	8.000000
321.000000	7.000000
321.250000	8.000000
321.500000	4.000000
321.750000	5.000000
322.000000	4.000000
322.250000	6.000000
322.500000	2.000000
322.750000	4.000000
323.000000	5.000000
323.250000	6.000000
323.500000	4.000000
323.750000	4.000000
324.000000	5.000000
324.250000	4.000000
324.500000	5.000000
324.750000	4.000000
325.000000	4.000000
325.250000	9.000000
325.500000	11.000000
325.750000	6.000000
326.000000	5.000000
326.250000	4.000000
326.500000	4.000000
326.750000	4.000000
327.000000	0.000000
327.250000	6.000000
327.500000	5.000000
327.750000	4.000000
328.000000	7.000000
328.250000	4.000000
328.500000	3.000000
328.750000	7.000000
329.000000	6.000000
329.250000	5.000000
329.500000	4.000000
329.750000	3.000000
330.000000	2.000000
330.250000	4.000000
330.500000	5.000000
330.750000	2.000000
331.000000	2.000000
